Time (s), Current (A), Voltage (V)
0.000000	1.162179E-6	0.000000
0.169009	1.141469E-3	0.040000
0.395023	2.000295E-3	0.080000
0.564002	2.000317E-3	0.120000
0.731477	2.000319E-3	0.160000
0.898489	2.000316E-3	0.200000
1.065499	2.000259E-3	0.240000
1.233510	2.000261E-3	0.280000
1.400064	2.000252E-3	0.320000
1.569253	2.000267E-3	0.360000
1.741265	2.000259E-3	0.400000
1.908275	2.000275E-3	0.440000
2.076285	2.000281E-3	0.480000
2.242297	2.000281E-3	0.520000
2.410307	2.000287E-3	0.560000
2.577141	2.000283E-3	0.600000
2.744942	2.000288E-3	0.640000
2.911858	2.000266E-3	0.680000
3.078932	2.000293E-3	0.720000
3.245731	2.000296E-3	0.760000
3.412378	2.000292E-3	0.800000
3.580253	2.000300E-3	0.840000
3.747555	2.000307E-3	0.880000
3.915801	2.000302E-3	0.920000
4.083538	2.000301E-3	0.960000
4.250680	2.000314E-3	1.000000
4.418692	2.000302E-3	1.040000
4.585701	2.000317E-3	1.080000
4.752713	2.000307E-3	1.120000
4.920722	2.000314E-3	1.160000
5.087733	2.000312E-3	1.200000
5.254744	2.000307E-3	1.240000
5.421273	2.000320E-3	1.280000
5.587903	2.000318E-3	1.320000
5.755913	2.000323E-3	1.360000
5.923924	2.000318E-3	1.400000
6.090934	2.000316E-3	1.440000
6.257945	2.000324E-3	1.480000
6.425956	2.000322E-3	1.520000
6.591966	2.000327E-3	1.560000
6.759976	2.000327E-3	1.600000
6.927988	2.000317E-3	1.640000
7.095000	2.000326E-3	1.680000
7.261008	2.000330E-3	1.720000
7.427019	2.000331E-3	1.760000
7.594029	2.000310E-3	1.800000
7.759040	2.000323E-3	1.840000
7.926050	2.000323E-3	1.880000
8.093060	2.000313E-3	1.920000
8.261072	2.000322E-3	1.960000
9.493345	2.000313E-3	2.000000
9.660747	2.000312E-3	1.920000
9.827717	2.000317E-3	1.840000
9.996696	2.000325E-3	1.760000
10.163706	2.000330E-3	1.680000
10.330717	2.000315E-3	1.600000
10.497727	2.000310E-3	1.520000
10.665738	2.000321E-3	1.440000
10.833751	2.000307E-3	1.360000
11.000759	2.000316E-3	1.280000
11.167772	2.000301E-3	1.200000
11.334781	2.000320E-3	1.120000
11.500791	2.000307E-3	1.040000
11.667800	2.000309E-3	0.960000
11.833430	2.000305E-3	0.880000
12.002497	2.000288E-3	0.800000
12.170507	2.000305E-3	0.720000
12.337518	2.000293E-3	0.640000
12.504534	2.000277E-3	0.560000
12.671541	2.000283E-3	0.480000
12.839550	2.000261E-3	0.400000
13.009089	2.000252E-3	0.320000
13.176553	2.000259E-3	0.240000
13.342865	2.000310E-3	0.160000
13.510284	2.000292E-3	0.080000
13.678608	1.955212E-6	0.000000
13.910623	1.999566E-3	-0.080000
14.136637	1.999609E-3	-0.160000
14.303648	1.999539E-3	-0.240000
14.471658	1.999558E-3	-0.320000
14.639669	1.999565E-3	-0.400000
14.806679	1.999576E-3	-0.480000
14.975689	1.999578E-3	-0.560000
15.143701	1.999586E-3	-0.640000
15.310712	1.999600E-3	-0.720000
15.477722	1.999592E-3	-0.800000
15.645733	1.999598E-3	-0.880000
15.811744	1.999608E-3	-0.960000
15.978754	1.999602E-3	-1.040000
16.146765	1.999611E-3	-1.120000
16.314775	1.999605E-3	-1.200000
16.481832	1.999606E-3	-1.280000
16.649455	1.999615E-3	-1.360000
16.816468	1.999613E-3	-1.440000
16.982476	1.999616E-3	-1.520000
17.152487	1.999623E-3	-1.600000
17.317468	1.999614E-3	-1.680000
17.484446	1.999619E-3	-1.760000
17.652450	1.999608E-3	-1.840000
17.819460	1.999607E-3	-1.920000
0.000000	1.999612E-3	-2.000000
0.167011	1.999616E-3	-1.920000
0.333814	1.999597E-3	-1.840000
0.500857	1.999609E-3	-1.760000
0.668984	1.999612E-3	-1.680000
0.835995	1.999628E-3	-1.600000
1.004006	1.999596E-3	-1.520000
1.172016	1.999591E-3	-1.440000
1.340117	1.999626E-3	-1.360000
1.506104	1.999614E-3	-1.280000
1.673115	1.999609E-3	-1.200000
1.840125	1.999596E-3	-1.120000
2.009135	1.999607E-3	-1.040000
2.176147	1.999615E-3	-0.960000
2.344028	1.999597E-3	-0.880000
2.511074	1.999632E-3	-0.800000
2.681099	1.999603E-3	-0.720000
2.847786	1.999574E-3	-0.640000
3.015752	1.999564E-3	-0.560000
3.185614	1.999567E-3	-0.480000
3.353479	1.999570E-3	-0.400000
3.520258	1.999564E-3	-0.320000
3.687268	1.999547E-3	-0.240000
3.854280	1.999598E-3	-0.160000
4.020290	1.999594E-3	-0.080000
4.187300	1.238415E-7	0.000000
4.488319	2.000281E-3	0.080000
4.774336	2.000317E-3	0.160000
4.941634	2.000242E-3	0.240000
5.109469	2.000249E-3	0.320000
5.275628	2.000255E-3	0.400000
5.443352	2.000268E-3	0.480000
5.609822	2.000272E-3	0.560000
5.777833	2.000263E-3	0.640000
5.943843	2.000297E-3	0.720000
6.111854	2.000286E-3	0.800000
6.278864	2.000287E-3	0.880000
6.445875	2.000295E-3	0.960000
6.613886	2.000293E-3	1.040000
6.780904	2.000306E-3	1.120000
6.947941	2.000299E-3	1.200000
7.114785	2.000310E-3	1.280000
7.280796	2.000315E-3	1.360000
7.448807	2.000313E-3	1.440000
7.617817	2.000314E-3	1.520000
7.785828	2.000304E-3	1.600000
7.951838	2.000303E-3	1.680000
8.120852	2.000312E-3	1.760000
8.288888	2.000310E-3	1.840000
8.455842	2.000297E-3	1.920000
8.623102	2.000307E-3	2.000000
8.790238	2.000299E-3	1.920000
8.957087	2.000300E-3	1.840000
9.126179	2.000303E-3	1.760000
9.295307	2.000314E-3	1.680000
9.462316	2.000299E-3	1.600000
9.630327	2.000301E-3	1.520000
9.798338	2.000297E-3	1.440000
9.965348	2.000302E-3	1.360000
10.132360	2.000317E-3	1.280000
10.300369	2.000285E-3	1.200000
10.467380	2.000301E-3	1.120000
10.634391	2.000293E-3	1.040000
10.802402	2.000289E-3	0.960000
10.971413	2.000280E-3	0.880000
11.138422	2.000282E-3	0.800000
11.305433	2.000283E-3	0.720000
11.473444	2.000271E-3	0.640000
11.640455	2.000269E-3	0.560000
11.807465	2.000264E-3	0.480000
11.975475	2.000234E-3	0.400000
12.142486	2.000237E-3	0.320000
12.310496	2.000240E-3	0.240000
12.478508	2.000302E-3	0.160000
12.644518	2.000276E-3	0.080000
12.812529	2.217527E-6	0.000000
13.045543	1.999582E-3	-0.080000
13.272558	1.999616E-3	-0.160000
13.438592	1.999552E-3	-0.240000
13.606493	1.999570E-3	-0.320000
13.771732	1.999571E-3	-0.400000
13.938743	1.999579E-3	-0.480000
14.106753	1.999584E-3	-0.560000
14.275837	1.999584E-3	-0.640000
14.442966	1.999597E-3	-0.720000
14.609888	1.999596E-3	-0.800000
14.776898	1.999605E-3	-0.880000
14.943909	1.999608E-3	-0.960000
15.110920	1.999611E-3	-1.040000
15.277931	1.999612E-3	-1.120000
15.444941	1.999618E-3	-1.200000
15.611951	1.999624E-3	-1.280000
15.779962	1.999623E-3	-1.360000
15.947973	1.999621E-3	-1.440000
16.115983	1.999622E-3	-1.520000
16.283994	1.999628E-3	-1.600000
16.451004	1.999616E-3	-1.680000
16.618015	1.999632E-3	-1.760000
16.785026	1.999620E-3	-1.840000
16.953035	1.999620E-3	-1.920000
17.121047	1.999619E-3	-2.000000
17.289058	1.999621E-3	-1.920000
17.456078	1.999613E-3	-1.840000
17.624079	1.999624E-3	-1.760000
17.792092	1.999618E-3	-1.680000
17.958101	1.999629E-3	-1.600000
18.124110	1.999622E-3	-1.520000
18.291121	1.999623E-3	-1.440000
18.459131	1.999625E-3	-1.360000
18.627142	1.999615E-3	-1.280000
18.793153	1.999622E-3	-1.200000
18.961163	1.999613E-3	-1.120000
19.128175	1.999611E-3	-1.040000
19.294184	1.999615E-3	-0.960000
19.462195	1.999605E-3	-0.880000
19.629205	1.999606E-3	-0.800000
19.797215	1.999596E-3	-0.720000
19.964227	1.999592E-3	-0.640000
20.131238	1.999575E-3	-0.560000
20.298247	1.999583E-3	-0.480000
20.465258	1.999572E-3	-0.400000
20.633268	1.999578E-3	-0.320000
20.801279	1.999552E-3	-0.240000
20.967290	1.999618E-3	-0.160000
21.135301	1.999595E-3	-0.080000
21.303310	1.155164E-7	0.000000
21.605330	2.000277E-3	0.080000
21.891348	2.000298E-3	0.160000
22.058360	2.000245E-3	0.240000
22.226369	2.000232E-3	0.320000
22.394381	2.000238E-3	0.400000
22.561390	2.000256E-3	0.480000
22.729402	2.000261E-3	0.560000
22.896412	2.000273E-3	0.640000
23.064387	2.000279E-3	0.720000
23.229104	2.000284E-3	0.800000
23.396115	2.000285E-3	0.880000
23.564126	2.000286E-3	0.960000
23.732136	2.000289E-3	1.040000
23.900146	2.000301E-3	1.120000
24.068160	2.000303E-3	1.200000
24.236168	2.000306E-3	1.280000
24.403178	2.000306E-3	1.360000
24.570188	2.000298E-3	1.440000
24.738199	2.000307E-3	1.520000
24.907210	2.000316E-3	1.600000
25.075221	2.000302E-3	1.680000
25.241664	2.000308E-3	1.760000
25.408964	2.000300E-3	1.840000
25.575975	2.000301E-3	1.920000
25.741986	2.000307E-3	2.000000
25.909996	2.000307E-3	1.920000
26.077007	2.000307E-3	1.840000
26.245018	2.000305E-3	1.760000
26.412037	2.000307E-3	1.680000
26.580039	2.000299E-3	1.600000
26.747050	2.000300E-3	1.520000
26.914060	2.000296E-3	1.440000
27.081070	2.000303E-3	1.360000
27.250082	2.000326E-3	1.280000
27.417091	2.000293E-3	1.200000
27.585103	2.000298E-3	1.120000
27.753113	2.000290E-3	1.040000
27.921124	2.000289E-3	0.960000
28.088135	2.000295E-3	0.880000
28.255145	2.000274E-3	0.800000
28.422155	2.000275E-3	0.720000
28.589166	2.000276E-3	0.640000
28.757177	2.000272E-3	0.560000
28.925188	2.000262E-3	0.480000
29.093197	2.000242E-3	0.400000
29.260208	2.000240E-3	0.320000
29.426514	2.000256E-3	0.240000
29.594604	2.000319E-3	0.160000
29.763615	2.000285E-3	0.080000
29.930624	2.316264E-6	0.000000
30.161752	1.999580E-3	-0.080000
30.388188	1.999618E-3	-0.160000
30.556199	1.999553E-3	-0.240000
30.722209	1.999574E-3	-0.320000
30.889269	1.999572E-3	-0.400000
31.056279	1.999572E-3	-0.480000
31.224290	1.999577E-3	-0.560000
31.393301	1.999593E-3	-0.640000
31.561311	1.999597E-3	-0.720000
31.728322	1.999603E-3	-0.800000
31.895332	1.999605E-3	-0.880000
32.062344	1.999603E-3	-0.960000
32.229335	1.999604E-3	-1.040000
32.396127	1.999610E-3	-1.120000
32.563136	1.999619E-3	-1.200000
32.729146	1.999616E-3	-1.280000
32.897157	1.999620E-3	-1.360000
33.063168	1.999627E-3	-1.440000
33.233179	1.999616E-3	-1.520000
33.400194	1.999622E-3	-1.600000
33.568200	1.999624E-3	-1.680000
33.736211	1.999624E-3	-1.760000
33.903221	1.999616E-3	-1.840000
34.070232	1.999615E-3	-1.920000
34.238244	1.999619E-3	-2.000000
34.404016	1.999614E-3	-1.920000
34.569801	1.999604E-3	-1.840000
34.736812	1.999622E-3	-1.760000
34.904824	1.999618E-3	-1.680000
35.071832	1.999624E-3	-1.600000
35.238843	1.999625E-3	-1.520000
35.406853	1.999620E-3	-1.440000
35.572864	1.999618E-3	-1.360000
35.740875	1.999608E-3	-1.280000
35.907884	1.999611E-3	-1.200000
36.074895	1.999609E-3	-1.120000
36.242906	1.999609E-3	-1.040000
36.410920	1.999605E-3	-0.960000
36.577967	1.999601E-3	-0.880000
36.747090	1.999597E-3	-0.800000
36.914100	1.999599E-3	-0.720000
37.081110	1.999590E-3	-0.640000
37.248170	1.999573E-3	-0.560000
37.415179	1.999564E-3	-0.480000
37.582191	1.999575E-3	-0.400000
37.749200	1.999565E-3	-0.320000
37.915211	1.999547E-3	-0.240000
38.082226	1.999605E-3	-0.160000
38.250232	1.999586E-3	-0.080000
38.417038	5.655547E-8	0.000000
38.717992	2.000277E-3	0.080000
39.003032	2.000303E-3	0.160000
39.172388	2.000247E-3	0.240000
39.339398	2.000239E-3	0.320000
39.507408	2.000247E-3	0.400000
39.674422	2.000261E-3	0.480000
39.841429	2.000270E-3	0.560000
40.009440	2.000276E-3	0.640000
40.176451	2.000278E-3	0.720000
40.344251	2.000282E-3	0.800000
40.511580	2.000283E-3	0.880000
40.679591	2.000283E-3	0.960000
40.847602	2.000293E-3	1.040000
41.015612	2.000305E-3	1.120000
41.183623	2.000305E-3	1.200000
41.350633	2.000307E-3	1.280000
41.517643	2.000293E-3	1.360000
41.685655	2.000302E-3	1.440000
41.853664	2.000305E-3	1.520000
42.021676	2.000311E-3	1.600000
42.188686	2.000305E-3	1.680000
42.354110	2.000296E-3	1.760000
42.522129	2.000296E-3	1.840000
42.690139	2.000296E-3	1.920000
42.857149	2.000297E-3	2.000000
43.023160	2.000294E-3	1.920000
43.192172	2.000300E-3	1.840000
43.359182	2.000303E-3	1.760000
43.527192	2.000305E-3	1.680000
43.693203	2.000303E-3	1.600000
43.861213	2.000305E-3	1.520000
44.029223	2.000296E-3	1.440000
44.197235	2.000301E-3	1.360000
44.362765	2.000293E-3	1.280000
44.530679	2.000293E-3	1.200000
44.697690	2.000296E-3	1.120000
44.865701	2.000282E-3	1.040000
45.032712	2.000277E-3	0.960000
45.199721	2.000279E-3	0.880000
45.365757	2.000271E-3	0.800000
45.531749	2.000273E-3	0.720000
45.699786	2.000269E-3	0.640000
45.866746	2.000256E-3	0.560000
46.034754	2.000255E-3	0.480000
46.201231	2.000241E-3	0.400000
46.368630	2.000247E-3	0.320000
46.535641	2.000244E-3	0.240000
46.703651	2.000305E-3	0.160000
46.871662	2.000288E-3	0.080000
47.039672	2.263782E-6	0.000000
47.270688	1.999579E-3	-0.080000
47.496703	1.999613E-3	-0.160000
47.663712	1.999548E-3	-0.240000
47.831723	1.999568E-3	-0.320000
47.996032	1.999567E-3	-0.400000
48.164228	1.999575E-3	-0.480000
48.329290	1.999581E-3	-0.560000
48.497587	1.999581E-3	-0.640000
48.665597	1.999594E-3	-0.720000
48.832607	1.999591E-3	-0.800000
48.999618	1.999600E-3	-0.880000
49.165671	1.999599E-3	-0.960000
49.332441	1.999605E-3	-1.040000
49.501708	1.999609E-3	-1.120000
49.669756	1.999616E-3	-1.200000
49.836649	1.999615E-3	-1.280000
50.002659	1.999618E-3	-1.360000
50.170547	1.999613E-3	-1.440000
50.338511	1.999619E-3	-1.520000
50.503521	1.999624E-3	-1.600000
50.671533	1.999620E-3	-1.680000
50.838542	1.999621E-3	-1.760000
51.005554	1.999607E-3	-1.840000
51.173564	1.999614E-3	-1.920000
51.341575	1.999614E-3	-2.000000
51.508586	1.999616E-3	-1.920000
51.676596	1.999605E-3	-1.840000
51.844606	1.999619E-3	-1.760000
52.010617	1.999621E-3	-1.680000
52.177628	1.999626E-3	-1.600000
52.344639	1.999616E-3	-1.520000
