Time (s), Current (A), Voltage (V)
0.000000	2.353397E-10	0.000000
0.124009	1.756171E-6	0.050000
0.367589	3.513196E-6	0.100000
0.485753	5.275514E-6	0.150000
0.604208	7.056572E-6	0.200000
0.722377	8.845101E-6	0.250000
0.839474	1.064563E-5	0.300000
1.075806	1.246912E-5	0.350000
1.194994	1.431119E-5	0.400000
1.313002	1.616658E-5	0.450000
1.430009	1.804404E-5	0.500000
1.547017	1.994004E-5	0.550000
1.664030	2.185078E-5	0.600000
1.782031	2.380784E-5	0.650000
1.900155	2.578326E-5	0.700000
2.018587	2.781446E-5	0.750000
2.136608	2.988085E-5	0.800000
2.253006	3.204639E-5	0.850000
2.371556	3.431547E-5	0.900000
2.488562	3.664770E-5	0.950000
2.604628	3.909339E-5	1.000000
2.721869	4.162958E-5	1.050000
2.838877	4.428308E-5	1.100000
2.956947	4.703627E-5	1.150000
3.075068	4.985843E-5	1.200000
3.192539	5.276033E-5	1.250000
3.309189	5.571756E-5	1.300000
3.427427	5.874745E-5	1.350000
3.545435	6.183764E-5	1.400000
3.660881	6.493809E-5	1.450000
3.779406	6.812995E-5	1.500000
3.895833	7.134446E-5	1.550000
4.015022	7.460015E-5	1.600000
4.132067	7.788950E-5	1.650000
4.250486	8.120236E-5	1.700000
4.367494	8.454507E-5	1.750000
4.483501	8.794641E-5	1.800000
4.600569	9.137516E-5	1.850000
4.715899	9.482907E-5	1.900000
4.834435	9.827966E-5	1.950000
4.952442	1.018037E-4	2.000000
5.069473	1.054108E-4	2.050000
5.300938	1.089496E-4	2.100000
5.418403	1.126486E-4	2.150000
5.537409	1.162494E-4	2.200000
5.652899	1.198636E-4	2.250000
5.772539	1.235622E-4	2.300000
5.888818	1.272766E-4	2.350000
6.006826	1.310175E-4	2.400000
6.124259	1.347927E-4	2.450000
7.304433	1.390730E-4	2.500000
7.421392	1.317083E-4	2.400000
7.539399	1.243943E-4	2.300000
7.658406	1.172541E-4	2.200000
7.775416	1.101358E-4	2.100000
7.892422	1.032039E-4	2.000000
8.010429	9.638785E-5	1.900000
8.189440	8.967023E-5	1.800000
8.305954	8.308018E-5	1.700000
8.423158	7.660738E-5	1.600000
8.541421	7.022840E-5	1.500000
8.659428	6.402214E-5	1.400000
8.776435	5.795130E-5	1.300000
8.894442	5.204713E-5	1.200000
9.009858	4.634912E-5	1.100000
9.127146	4.088808E-5	1.000000
9.244520	3.570727E-5	0.900000
9.359527	3.085455E-5	0.800000
9.477058	2.635904E-5	0.700000
9.594374	2.216434E-5	0.600000
9.711553	1.820697E-5	0.500000
9.827823	1.439561E-5	0.400000
9.945341	1.069663E-5	0.300000
10.063148	7.072515E-6	0.200000
10.244683	3.520875E-6	0.100000
10.362691	3.179868E-9	0.000000
10.550704	3.525750E-6	-0.100000
10.793723	7.095184E-6	-0.200000
10.910726	1.073373E-5	-0.300000
11.147903	1.443356E-5	-0.400000
11.266901	1.820759E-5	-0.500000
11.384949	2.205716E-5	-0.600000
11.503466	2.597307E-5	-0.700000
11.620918	2.994157E-5	-0.800000
11.738042	3.398717E-5	-0.900000
11.857049	3.810383E-5	-1.000000
11.974479	4.229283E-5	-1.100000
12.091082	4.658457E-5	-1.200000
12.209332	5.095445E-5	-1.300000
12.326339	5.540966E-5	-1.400000
12.443645	6.005689E-5	-1.500000
12.561040	6.481095E-5	-1.600000
12.679504	6.977074E-5	-1.700000
12.796512	7.490312E-5	-1.800000
12.913578	8.022118E-5	-1.900000
13.031234	8.575510E-5	-2.000000
13.148744	9.149838E-5	-2.100000
13.265751	9.743876E-5	-2.200000
13.381804	1.035871E-4	-2.300000
13.500252	1.097946E-4	-2.400000
0.000000	1.155823E-4	-2.500000
0.117959	1.088800E-4	-2.400000
0.236967	1.024583E-4	-2.300000
0.354973	9.630193E-5	-2.200000
0.534986	9.037765E-5	-2.100000
0.652992	8.474527E-5	-2.000000
0.770000	7.935031E-5	-1.900000
0.887007	7.416111E-5	-1.800000
1.004015	6.918462E-5	-1.700000
1.120172	6.436608E-5	-1.600000
1.239721	5.968445E-5	-1.500000
1.355865	5.512625E-5	-1.400000
1.474874	5.070110E-5	-1.300000
1.591228	4.636167E-5	-1.200000
1.708550	4.210874E-5	-1.100000
1.825966	3.793062E-5	-1.000000
1.942975	3.382898E-5	-0.900000
2.059982	2.980281E-5	-0.800000
2.179515	2.584675E-5	-0.700000
2.296012	2.194965E-5	-0.600000
2.413364	1.813870E-5	-0.500000
2.530371	1.438362E-5	-0.400000
2.647869	1.069949E-5	-0.300000
2.765384	7.084564E-6	-0.200000
2.946761	3.519643E-6	-0.100000
3.063769	2.948251E-10	0.000000
3.252100	3.516567E-6	0.100000
3.495558	7.066727E-6	0.200000
3.612616	1.067319E-5	0.300000
3.849275	1.434099E-5	0.400000
3.971282	1.808162E-5	0.500000
4.090290	2.190453E-5	0.600000
4.208714	2.583953E-5	0.700000
4.325242	2.997315E-5	0.800000
4.442249	3.441062E-5	0.900000
4.560257	3.920240E-5	1.000000
4.677291	4.439253E-5	1.100000
4.793822	4.991577E-5	1.200000
4.910944	5.573289E-5	1.300000
5.027951	6.177805E-5	1.400000
5.146211	6.801251E-5	1.500000
5.262784	7.442529E-5	1.600000
5.380262	8.100140E-5	1.700000
5.498270	8.771072E-5	1.800000
5.615373	9.451243E-5	1.900000
5.732839	1.014612E-4	2.000000
5.850375	1.086763E-4	2.100000
6.085431	1.159078E-4	2.200000
6.201835	1.231747E-4	2.300000
6.318347	1.305859E-4	2.400000
6.437587	1.381258E-4	2.500000
6.554595	1.308667E-4	2.400000
6.670123	1.236696E-4	2.300000
6.787888	1.165925E-4	2.200000
6.905351	1.095417E-4	2.100000
7.022358	1.026503E-4	2.000000
7.138792	9.590458E-5	1.900000
7.318357	8.925345E-5	1.800000
7.435707	8.267786E-5	1.700000
7.553714	7.625358E-5	1.600000
7.670272	6.993998E-5	1.500000
7.787801	6.376245E-5	1.400000
7.906391	5.773117E-5	1.300000
8.023398	5.185637E-5	1.200000
8.138886	4.618997E-5	1.100000
8.256541	4.075674E-5	1.000000
8.372698	3.560325E-5	0.900000
8.490706	3.078676E-5	0.800000
8.607772	2.631214E-5	0.700000
8.724311	2.213565E-5	0.600000
8.841722	1.818198E-5	0.500000
8.960729	1.438184E-5	0.400000
9.078738	1.068139E-5	0.300000
9.195617	7.067934E-6	0.200000
9.375168	3.519229E-6	0.100000
9.494176	3.249504E-9	0.000000
9.680361	3.522941E-6	-0.100000
9.921973	7.091869E-6	-0.200000
10.038981	1.072159E-5	-0.300000
10.275906	1.441779E-5	-0.400000
10.395448	1.819196E-5	-0.500000
10.512456	2.201796E-5	-0.600000
10.630810	2.592114E-5	-0.700000
10.747195	2.989846E-5	-0.800000
10.864698	3.393910E-5	-0.900000
10.982704	3.803793E-5	-1.000000
11.098814	4.223979E-5	-1.100000
11.217346	4.650479E-5	-1.200000
11.333834	5.087881E-5	-1.300000
11.450841	5.537851E-5	-1.400000
11.568848	5.999265E-5	-1.500000
11.686855	6.475345E-5	-1.600000
11.804863	6.971259E-5	-1.700000
11.919871	7.488612E-5	-1.800000
12.035879	8.025795E-5	-1.900000
12.153929	8.580425E-5	-2.000000
12.270483	9.154931E-5	-2.100000
12.388426	9.752526E-5	-2.200000
12.504434	1.036899E-4	-2.300000
12.622487	1.098803E-4	-2.400000
12.854120	1.164749E-4	-2.500000
12.975128	1.096440E-4	-2.400000
13.092208	1.030777E-4	-2.300000
13.208966	9.673132E-5	-2.200000
13.388663	9.074889E-5	-2.100000
13.505672	8.499191E-5	-2.000000
13.622861	7.947320E-5	-1.900000
13.740261	7.422584E-5	-1.800000
13.859769	6.920796E-5	-1.700000
13.975776	6.436463E-5	-1.600000
14.092833	5.968071E-5	-1.500000
14.208319	5.513271E-5	-1.400000
14.327467	5.069951E-5	-1.300000
14.445475	4.634762E-5	-1.200000
14.563495	4.208272E-5	-1.100000
14.680003	3.790523E-5	-1.000000
14.797559	3.382666E-5	-0.900000
14.914933	2.979958E-5	-0.800000
15.031940	2.584246E-5	-0.700000
15.147491	2.195591E-5	-0.600000
15.263901	1.813364E-5	-0.500000
15.383189	1.438180E-5	-0.400000
15.501195	1.069629E-5	-0.300000
15.620479	7.074935E-6	-0.200000
15.801131	3.515133E-6	-0.100000
15.918556	1.932999E-10	0.000000
16.106577	3.509965E-6	0.100000
16.348273	7.054022E-6	0.200000
16.465280	1.065107E-5	0.300000
16.701450	1.431053E-5	0.400000
16.818128	1.804978E-5	0.500000
16.936514	2.186938E-5	0.600000
17.053523	2.581971E-5	0.700000
17.170043	2.996536E-5	0.800000
17.285579	3.445199E-5	0.900000
17.401074	3.929382E-5	1.000000
17.519081	4.451435E-5	1.100000
17.635394	5.007082E-5	1.200000
17.753847	5.591060E-5	1.300000
17.870348	6.196258E-5	1.400000
17.987356	6.821143E-5	1.500000
18.104403	7.463372E-5	1.600000
18.221979	8.119825E-5	1.700000
18.339540	8.789501E-5	1.800000
18.457720	9.470545E-5	1.900000
18.573727	1.016379E-4	2.000000
18.691192	1.088180E-4	2.100000
18.922402	1.160461E-4	2.200000
19.040409	1.233279E-4	2.300000
19.158503	1.307259E-4	2.400000
19.274510	1.382852E-4	2.500000
19.390518	1.310299E-4	2.400000
19.508524	1.238322E-4	2.300000
19.625569	1.167350E-4	2.200000
19.743767	1.097172E-4	2.100000
19.861392	1.028566E-4	2.000000
19.979399	9.611383E-5	1.900000
20.156564	8.944896E-5	1.800000
20.272949	8.289253E-5	1.700000
20.392314	7.645151E-5	1.600000
20.509323	7.014052E-5	1.500000
20.628459	6.394160E-5	1.400000
20.744958	5.789505E-5	1.300000
20.862462	5.201091E-5	1.200000
20.978469	4.631823E-5	1.100000
21.096476	4.086448E-5	1.000000
21.213485	3.569194E-5	0.900000
21.330954	3.085359E-5	0.800000
21.449962	2.633476E-5	0.700000
21.565969	2.215306E-5	0.600000
21.683598	1.819145E-5	0.500000
21.801217	1.438545E-5	0.400000
21.918688	1.069198E-5	0.300000
22.035695	7.072368E-6	0.200000
22.218156	3.520124E-6	0.100000
22.337624	3.225205E-9	0.000000
22.523634	3.525742E-6	-0.100000
22.765134	7.096506E-6	-0.200000
22.883870	1.072162E-5	-0.300000
23.120928	1.441840E-5	-0.400000
23.239530	1.818646E-5	-0.500000
23.355165	2.201809E-5	-0.600000
23.474173	2.592649E-5	-0.700000
23.591223	2.988409E-5	-0.800000
23.708596	3.392642E-5	-0.900000
23.825109	3.805114E-5	-1.000000
23.942232	4.222192E-5	-1.100000
24.060744	4.649060E-5	-1.200000
24.178264	5.087153E-5	-1.300000
24.295766	5.537290E-5	-1.400000
24.413774	6.001627E-5	-1.500000
24.532782	6.479290E-5	-1.600000
24.647281	6.974262E-5	-1.700000
24.765793	7.489436E-5	-1.800000
24.881282	8.026864E-5	-1.900000
24.999290	8.578241E-5	-2.000000
25.116405	9.155262E-5	-2.100000
25.233817	9.753653E-5	-2.200000
25.350471	1.036678E-4	-2.300000
25.468479	1.098952E-4	-2.400000
25.699651	1.165005E-4	-2.500000
25.816126	1.096185E-4	-2.400000
25.935590	1.030730E-4	-2.300000
26.052598	9.674694E-5	-2.200000
26.231227	9.065342E-5	-2.100000
26.349603	8.487770E-5	-2.000000
26.467608	7.940216E-5	-1.900000
26.583640	7.415297E-5	-1.800000
26.701207	6.913533E-5	-1.700000
26.818070	6.429222E-5	-1.600000
26.935306	5.961638E-5	-1.500000
27.052313	5.505882E-5	-1.400000
27.169858	5.061184E-5	-1.300000
27.284585	4.626130E-5	-1.200000
27.402765	4.201170E-5	-1.100000
27.518783	3.784010E-5	-1.000000
27.635780	3.375091E-5	-0.900000
27.751789	2.974152E-5	-0.800000
27.870794	2.578683E-5	-0.700000
27.987802	2.190916E-5	-0.600000
28.104810	1.809379E-5	-0.500000
28.219313	1.435152E-5	-0.400000
28.337701	1.067382E-5	-0.300000
28.455708	7.061354E-6	-0.200000
28.637803	3.509852E-6	-0.100000
28.755271	2.658326E-10	0.000000
28.942644	3.510959E-6	0.100000
29.183776	7.052901E-6	0.200000
29.301381	1.064931E-5	0.300000
29.538511	1.430345E-5	0.400000
29.655584	1.803390E-5	0.500000
29.770103	2.185529E-5	0.600000
29.889591	2.581244E-5	0.700000
30.005598	2.996591E-5	0.800000
30.122639	3.445391E-5	0.900000
30.239200	3.931987E-5	1.000000
30.356722	4.456068E-5	1.100000
30.474730	5.015162E-5	1.200000
30.591782	5.598286E-5	1.300000
30.707284	6.204719E-5	1.400000
30.824176	6.830922E-5	1.500000
30.941183	7.472307E-5	1.600000
31.060192	8.126986E-5	1.700000
31.178638	8.798009E-5	1.800000
31.295591	9.477429E-5	1.900000
31.411057	1.017225E-4	2.000000
31.530067	1.089032E-4	2.100000
31.760674	1.161539E-4	2.200000
31.878129	1.234540E-4	2.300000
31.995136	1.308858E-4	2.400000
32.111190	1.383709E-4	2.500000
32.228267	1.311178E-4	2.400000
32.345550	1.239153E-4	2.300000
32.462557	1.168569E-4	2.200000
32.581576	1.098126E-4	2.100000
32.697143	1.029258E-4	2.000000
32.814898	9.618743E-5	1.900000
32.993910	8.952557E-5	1.800000
33.111965	8.294593E-5	1.700000
33.229490	7.652541E-5	1.600000
33.345990	7.019605E-5	1.500000
33.464628	6.399873E-5	1.400000
33.582029	5.795154E-5	1.300000
33.699405	5.207507E-5	1.200000
33.817412	4.638447E-5	1.100000
33.934420	4.092316E-5	1.000000
34.052428	3.574118E-5	0.900000
34.169940	3.087929E-5	0.800000
34.287342	2.635958E-5	0.700000
34.404820	2.214576E-5	0.600000
34.522827	1.818250E-5	0.500000
34.641007	1.437705E-5	0.400000
34.760416	1.068090E-5	0.300000
34.877032	7.061023E-6	0.200000
35.060045	3.514805E-6	0.100000
35.177358	3.281392E-9	0.000000
35.364154	3.518887E-6	-0.100000
35.607170	7.081846E-6	-0.200000
35.724861	1.070658E-5	-0.300000
35.960378	1.440859E-5	-0.400000
36.078386	1.816423E-5	-0.500000
36.194932	2.200279E-5	-0.600000
36.311487	2.590989E-5	-0.700000
36.429866	2.987288E-5	-0.800000
36.545875	3.390322E-5	-0.900000
36.663270	3.801020E-5	-1.000000
36.780805	4.220908E-5	-1.100000
36.897383	4.650310E-5	-1.200000
37.014390	5.085875E-5	-1.300000
37.132399	5.536422E-5	-1.400000
37.250678	6.001342E-5	-1.500000
37.365983	6.480938E-5	-1.600000
37.483991	6.973902E-5	-1.700000
37.602378	7.491335E-5	-1.800000
37.718985	8.027257E-5	-1.900000
37.834383	8.580153E-5	-2.000000
37.951390	9.160278E-5	-2.100000
38.068675	9.758871E-5	-2.200000
38.185281	1.037356E-4	-2.300000
38.302988	1.098795E-4	-2.400000
38.533003	1.164955E-4	-2.500000
38.650035	1.096165E-4	-2.400000
38.766513	1.030128E-4	-2.300000
38.884034	9.666422E-5	-2.200000
39.062044	9.061476E-5	-2.100000
39.179554	8.485382E-5	-2.000000
39.296041	7.937048E-5	-1.900000
39.414442	7.412783E-5	-1.800000
39.531449	6.911073E-5	-1.700000
39.646544	6.426709E-5	-1.600000
39.764058	5.958380E-5	-1.500000
39.882428	5.503164E-5	-1.400000
40.000435	5.057379E-5	-1.300000
40.118490	4.624966E-5	-1.200000
40.235023	4.200986E-5	-1.100000
40.352688	3.784902E-5	-1.000000
40.468110	3.375669E-5	-0.900000
40.587117	2.973355E-5	-0.800000
40.704635	2.577856E-5	-0.700000
40.820073	2.190123E-5	-0.600000
40.939567	1.808589E-5	-0.500000
41.056573	1.434138E-5	-0.400000
41.173843	1.066838E-5	-0.300000
41.289384	7.058444E-6	-0.200000
41.472754	3.508115E-6	-0.100000
41.590758	2.366893E-10	0.000000
41.777320	3.506356E-6	0.100000
42.021683	7.041876E-6	0.200000
42.138714	1.063482E-5	0.300000
42.374443	1.428499E-5	0.400000
42.492451	1.801614E-5	0.500000
42.610467	2.183885E-5	0.600000
42.727703	2.579491E-5	0.700000
42.845077	2.996946E-5	0.800000
42.961153	3.446871E-5	0.900000
43.078160	3.936471E-5	1.000000
43.195709	4.459952E-5	1.100000
43.312350	5.017711E-5	1.200000
43.430361	5.602542E-5	1.300000
43.547367	6.209814E-5	1.400000
43.664375	6.835883E-5	1.500000
43.781383	7.477492E-5	1.600000
43.898390	8.133953E-5	1.700000
44.015397	8.801809E-5	1.800000
44.132405	9.482581E-5	1.900000
44.250435	1.017879E-4	2.000000
44.369018	1.089871E-4	2.100000
44.600035	1.162405E-4	2.200000
44.717482	1.235080E-4	2.300000
44.834014	1.309209E-4	2.400000
44.952482	1.384179E-4	2.500000
45.069489	1.311599E-4	2.400000
45.187981	1.239855E-4	2.300000
45.304391	1.169289E-4	2.200000
45.421837	1.098913E-4	2.100000
45.538844	1.029847E-4	2.000000
45.655936	9.625622E-5	1.900000
45.832376	8.959783E-5	1.800000
45.950861	8.303269E-5	1.700000
46.068868	7.659350E-5	1.600000
46.185435	7.026292E-5	1.500000
46.302989	6.407237E-5	1.400000
46.420433	5.802586E-5	1.300000
46.538440	5.212545E-5	1.200000
46.655498	4.644526E-5	1.100000
46.774794	4.096108E-5	1.000000
46.891335	3.575781E-5	0.900000
47.009343	3.087844E-5	0.800000
47.126408	2.634513E-5	0.700000
47.242801	2.212971E-5	0.600000
47.360271	1.815790E-5	0.500000
47.477279	1.435560E-5	0.400000
47.594299	1.066441E-5	0.300000
47.711655	7.053127E-6	0.200000
47.892621	3.512549E-6	0.100000
48.011628	3.254348E-9	0.000000
48.197639	3.517007E-6	-0.100000
48.440702	7.080196E-6	-0.200000
48.557711	1.069878E-5	-0.300000
48.793237	1.439840E-5	-0.400000
48.911564	1.815926E-5	-0.500000
49.027571	2.198367E-5	-0.600000
49.145602	2.588255E-5	-0.700000
49.260146	2.984474E-5	-0.800000
49.379567	3.385789E-5	-0.900000
49.498575	3.796571E-5	-1.000000
49.616631	4.215256E-5	-1.100000
49.733126	4.641974E-5	-1.200000
49.851641	5.080006E-5	-1.300000
49.968003	5.529409E-5	-1.400000
50.084010	5.994750E-5	-1.500000
50.200547	6.474372E-5	-1.600000
50.318259	6.969846E-5	-1.700000
50.436727	7.486899E-5	-1.800000
50.554735	8.024342E-5	-1.900000
50.671198	8.577226E-5	-2.000000
50.789822	9.154312E-5	-2.100000
50.906317	9.756204E-5	-2.200000
51.023325	1.036882E-4	-2.300000
51.141357	1.098874E-4	-2.400000
51.373959	1.164432E-4	-2.500000
51.491967	1.096026E-4	-2.400000
51.608974	1.029795E-4	-2.300000
51.725382	9.665060E-5	-2.200000
51.903218	9.059625E-5	-2.100000
52.020225	8.485283E-5	-2.000000
52.137268	7.937176E-5	-1.900000
52.255847	7.411789E-5	-1.800000
52.372491	6.911199E-5	-1.700000
52.491502	6.426178E-5	-1.600000
52.607553	5.960102E-5	-1.500000
52.725186	5.503069E-5	-1.400000
52.842727	5.059272E-5	-1.300000
52.959195	4.624725E-5	-1.200000
53.075203	4.200630E-5	-1.100000
53.193720	3.784759E-5	-1.000000
53.309265	3.376867E-5	-0.900000
53.428387	2.972808E-5	-0.800000
53.545394	2.580421E-5	-0.700000
53.663571	2.191623E-5	-0.600000
53.780198	1.810421E-5	-0.500000
53.896230	1.435548E-5	-0.400000
54.014237	1.067557E-5	-0.300000
54.130301	7.063489E-6	-0.200000
54.313871	3.511264E-6	-0.100000
54.431139	2.446372E-10	0.000000
54.618185	3.508837E-6	0.100000
54.861880	7.045328E-6	0.200000
54.978887	1.063815E-5	0.300000
55.216053	1.429232E-5	0.400000
55.333418	1.802250E-5	0.500000
55.451884	2.184283E-5	0.600000
55.568894	2.580332E-5	0.700000
55.683275	2.997145E-5	0.800000
55.799693	3.449207E-5	0.900000
55.917257	3.938326E-5	1.000000
56.035263	4.463771E-5	1.100000
56.153458	5.021790E-5	1.200000
56.272010	5.608186E-5	1.300000
56.388437	6.214443E-5	1.400000
56.504443	6.840194E-5	1.500000
56.622475	7.483031E-5	1.600000
56.738908	8.140587E-5	1.700000
56.855607	8.810523E-5	1.800000
56.973898	9.492695E-5	1.900000
57.090906	1.018582E-4	2.000000
57.207379	1.090410E-4	2.100000
57.436303	1.162651E-4	2.200000
57.555311	1.235353E-4	2.300000
57.672728	1.309426E-4	2.400000
57.789306	1.384416E-4	2.500000
57.908801	1.311980E-4	2.400000
58.026810	1.240075E-4	2.300000
58.142860	1.169624E-4	2.200000
58.261193	1.099122E-4	2.100000
58.379831	1.030508E-4	2.000000
58.498838	9.629585E-5	1.900000
58.676908	8.963850E-5	1.800000
58.792496	8.308259E-5	1.700000
58.911036	7.662523E-5	1.600000
59.030043	7.029460E-5	1.500000
59.146087	6.410822E-5	1.400000
59.265154	5.805237E-5	1.300000
59.384460	5.217415E-5	1.200000
59.501467	4.645958E-5	1.100000
59.617475	4.097799E-5	1.000000
59.736483	3.578425E-5	0.900000
59.853490	3.088703E-5	0.800000
59.971497	2.635363E-5	0.700000
60.087505	2.213286E-5	0.600000
60.205698	1.815816E-5	0.500000
60.324152	1.435173E-5	0.400000
60.444614	1.065775E-5	0.300000
60.561621	7.056749E-6	0.200000
60.745147	3.511399E-6	0.100000
60.862399	3.233954E-9	0.000000
61.049411	3.516091E-6	-0.100000
61.292531	7.078435E-6	-0.200000
61.411063	1.070669E-5	-0.300000
61.647095	1.439803E-5	-0.400000
61.766023	1.816219E-5	-0.500000
61.882608	2.198688E-5	-0.600000
62.000615	2.587395E-5	-0.700000
62.117649	2.982718E-5	-0.800000
62.235195	3.386280E-5	-0.900000
62.353817	3.796836E-5	-1.000000
62.470824	4.215281E-5	-1.100000
62.587832	4.643678E-5	-1.200000
62.704328	5.081429E-5	-1.300000
62.820841	5.531780E-5	-1.400000
62.938297	5.993191E-5	-1.500000
63.055500	6.475021E-5	-1.600000
63.173013	6.971575E-5	-1.700000
63.289285	7.489860E-5	-1.800000
63.406294	8.026508E-5	-1.900000
63.524368	8.581386E-5	-2.000000
63.640550	9.161005E-5	-2.100000
63.758987	9.755457E-5	-2.200000
63.875997	1.037113E-4	-2.300000
63.993002	1.098740E-4	-2.400000
64.224140	1.164536E-4	-2.500000
64.341629	1.095826E-4	-2.400000
64.461094	1.029697E-4	-2.300000
64.578102	9.662980E-5	-2.200000
64.755638	9.058382E-5	-2.100000
64.872134	8.482875E-5	-2.000000
64.989146	7.931922E-5	-1.900000
65.104149	7.406485E-5	-1.800000
65.222783	6.903800E-5	-1.700000
65.339202	6.420841E-5	-1.600000
65.455679	5.951178E-5	-1.500000
65.573687	5.496112E-5	-1.400000
65.688970	5.054538E-5	-1.300000
65.805694	4.621407E-5	-1.200000
65.922257	4.196435E-5	-1.100000
66.038264	3.780481E-5	-1.000000
66.155335	3.371336E-5	-0.900000
66.272886	2.971079E-5	-0.800000
66.387346	2.577021E-5	-0.700000
66.505353	2.189140E-5	-0.600000
66.622382	1.807673E-5	-0.500000
66.739968	1.433819E-5	-0.400000
66.857442	1.066240E-5	-0.300000
66.974451	7.054733E-6	-0.200000
67.156129	3.505601E-6	-0.100000
67.273536	2.033974E-10	0.000000
67.460932	3.501266E-6	0.100000
67.702613	7.033303E-6	0.200000
67.820621	1.062590E-5	0.300000
68.056644	1.427733E-5	0.400000
68.175074	1.800306E-5	0.500000
68.290344	2.182177E-5	0.600000
68.407687	2.577173E-5	0.700000
68.524693	2.994264E-5	0.800000
68.642869	3.446328E-5	0.900000
68.758314	3.936647E-5	1.000000
68.875814	4.464452E-5	1.100000
68.992822	5.023377E-5	1.200000
69.110847	5.610111E-5	1.300000
69.225410	6.217922E-5	1.400000
69.343874	6.842861E-5	1.500000
69.461339	7.485199E-5	1.600000
69.577346	8.143982E-5	1.700000
69.695983	8.812093E-5	1.800000
69.812484	9.496709E-5	1.900000
69.930897	1.018814E-4	2.000000
70.048905	1.090598E-4	2.100000
70.279460	1.163084E-4	2.200000
70.397995	1.235649E-4	2.300000
70.515003	1.309607E-4	2.400000
70.632066	1.384927E-4	2.500000
70.747527	1.312445E-4	2.400000
70.865139	1.240269E-4	2.300000
70.981275	1.169720E-4	2.200000
71.099295	1.099105E-4	2.100000
71.216820	1.030469E-4	2.000000
71.333328	9.633033E-5	1.900000
71.513684	8.965877E-5	1.800000
71.630752	8.312324E-5	1.700000
71.748160	7.667003E-5	1.600000
71.864544	7.033832E-5	1.500000
71.980551	6.415175E-5	1.400000
72.098583	5.809260E-5	1.300000
72.215107	5.219771E-5	1.200000
72.331646	4.648645E-5	1.100000
72.450054	4.100989E-5	1.000000
72.567060	3.580967E-5	0.900000
72.683558	3.092158E-5	0.800000
72.802155	2.637297E-5	0.700000
72.918406	2.213481E-5	0.600000
73.037414	1.815087E-5	0.500000
73.152519	1.434123E-5	0.400000
73.271033	1.065104E-5	0.300000
73.387339	7.047798E-6	0.200000
73.569350	3.506443E-6	0.100000
73.686874	3.235106E-9	0.000000
73.873468	3.509789E-6	-0.100000
74.116517	7.066772E-6	-0.200000
74.234925	1.068105E-5	-0.300000
74.471508	1.435978E-5	-0.400000
74.589515	1.811083E-5	-0.500000
74.706000	2.192651E-5	-0.600000
74.822536	2.582138E-5	-0.700000
74.940042	2.977779E-5	-0.800000
75.057050	3.379292E-5	-0.900000
75.174493	3.789126E-5	-1.000000
75.293043	4.209498E-5	-1.100000
75.409279	4.633762E-5	-1.200000
75.527287	5.072411E-5	-1.300000
75.645295	5.521252E-5	-1.400000
75.760302	5.984872E-5	-1.500000
75.878310	6.463203E-5	-1.600000
75.995317	6.961715E-5	-1.700000
76.112337	7.481316E-5	-1.800000
76.230977	8.019040E-5	-1.900000
76.347771	8.575220E-5	-2.000000
76.465240	9.153219E-5	-2.100000
76.581247	9.749517E-5	-2.200000
76.698727	1.036671E-4	-2.300000
76.815342	1.098700E-4	-2.400000
77.046484	1.164253E-4	-2.500000
77.163995	1.095436E-4	-2.400000
77.280406	1.029360E-4	-2.300000
77.397768	9.656561E-5	-2.200000
77.575779	9.050367E-5	-2.100000
77.694122	8.473686E-5	-2.000000
77.808623	7.923557E-5	-1.900000
77.925112	7.397058E-5	-1.800000
78.042120	6.894848E-5	-1.700000
78.160189	6.411577E-5	-1.600000
78.276731	5.944851E-5	-1.500000
78.395182	5.493045E-5	-1.400000
78.511189	5.046571E-5	-1.300000
78.629255	4.612579E-5	-1.200000
78.746764	4.189530E-5	-1.100000
78.864208	3.773677E-5	-1.000000
78.982215	3.365556E-5	-0.900000
79.098245	2.964968E-5	-0.800000
79.216752	2.571261E-5	-0.700000
79.333289	2.185233E-5	-0.600000
79.450751	1.805072E-5	-0.500000
79.568759	1.431423E-5	-0.400000
79.686105	1.064566E-5	-0.300000
79.802663	7.042893E-6	-0.200000
79.985130	3.498656E-6	-0.100000
80.103518	1.911503E-10	0.000000
80.291118	3.498304E-6	0.100000
80.533132	7.028646E-6	0.200000
80.650163	1.061248E-5	0.300000
80.886766	1.425931E-5	0.400000
81.004773	1.798511E-5	0.500000
81.122781	2.179832E-5	0.600000
81.239355	2.575945E-5	0.700000
81.357900	2.993852E-5	0.800000
81.474658	3.446677E-5	0.900000
81.592274	3.937777E-5	1.000000
81.708447	4.466277E-5	1.100000
81.825454	5.026735E-5	1.200000
81.942461	5.611782E-5	1.300000
82.059468	6.218701E-5	1.400000
82.177656	6.845385E-5	1.500000
82.294233	7.486664E-5	1.600000
82.412606	8.142056E-5	1.700000
82.529614	8.811981E-5	1.800000
82.645682	9.493839E-5	1.900000
82.762100	1.018492E-4	2.000000
82.879431	1.090508E-4	2.100000
83.110466	1.162797E-4	2.200000
83.227979	1.235179E-4	2.300000
83.346253	1.309461E-4	2.400000
83.461374	1.384475E-4	2.500000
83.579382	1.311919E-4	2.400000
83.697550	1.240290E-4	2.300000
83.815200	1.169696E-4	2.200000
83.932676	1.099370E-4	2.100000
84.050683	1.030889E-4	2.000000
84.168704	9.634785E-5	1.900000
84.347136	8.968207E-5	1.800000
84.463603	8.312067E-5	1.700000
84.580610	7.670131E-5	1.600000
84.697985	7.036147E-5	1.500000
84.814508	6.417382E-5	1.400000
84.933970	5.812589E-5	1.300000
85.049978	5.222873E-5	1.200000
85.169101	4.651816E-5	1.100000
85.285491	4.103503E-5	1.000000
85.404090	3.581771E-5	0.900000
85.522096	3.090383E-5	0.800000
85.638164	2.635092E-5	0.700000
85.755583	2.211728E-5	0.600000
85.875031	1.813773E-5	0.500000
85.992039	1.433416E-5	0.400000
86.114333	1.064165E-5	0.300000
86.232641	7.041061E-6	0.200000
86.414171	3.505729E-6	0.100000
86.534177	3.191515E-9	0.000000
86.720282	3.510578E-6	-0.100000
86.962859	7.064526E-6	-0.200000
87.081121	1.068057E-5	-0.300000
87.317159	1.436611E-5	-0.400000
87.434166	1.811096E-5	-0.500000
87.551173	2.193102E-5	-0.600000
87.667423	2.581690E-5	-0.700000
87.785079	2.977522E-5	-0.800000
87.901533	3.378883E-5	-0.900000
88.018540	3.788517E-5	-1.000000
88.135594	4.206802E-5	-1.100000
88.253127	4.633031E-5	-1.200000
88.368678	5.068265E-5	-1.300000
88.485685	5.516332E-5	-1.400000
88.602707	5.982885E-5	-1.500000
88.721209	6.462235E-5	-1.600000
88.836800	6.961108E-5	-1.700000
88.955268	7.478127E-5	-1.800000
89.071271	8.012835E-5	-1.900000
89.187901	8.568670E-5	-2.000000
89.306323	9.143327E-5	-2.100000
89.422791	9.741174E-5	-2.200000
89.539797	1.035920E-4	-2.300000
89.656839	1.097578E-4	-2.400000
89.887404	1.162959E-4	-2.500000
90.004411	1.094544E-4	-2.400000
90.123418	1.028574E-4	-2.300000
90.241426	9.648798E-5	-2.200000
90.421287	9.042301E-5	-2.100000
90.536294	8.467224E-5	-2.000000
90.651389	7.914581E-5	-1.900000
90.769890	7.391016E-5	-1.800000
90.885390	6.888631E-5	-1.700000
91.004398	6.406585E-5	-1.600000
91.121428	5.940939E-5	-1.500000
91.238595	5.486689E-5	-1.400000
91.357207	5.044801E-5	-1.300000
91.475214	4.611072E-5	-1.200000
91.592223	4.186835E-5	-1.100000
91.709229	3.771436E-5	-1.000000
91.825237	3.364287E-5	-0.900000
91.943245	2.965481E-5	-0.800000
92.061252	2.572359E-5	-0.700000
92.179310	2.185299E-5	-0.600000
92.294745	1.804788E-5	-0.500000
92.412319	1.431868E-5	-0.400000
92.528336	1.065106E-5	-0.300000
92.644413	7.048191E-6	-0.200000
92.828010	3.504784E-6	-0.100000
92.946362	1.732049E-10	0.000000
93.133473	3.500726E-6	0.100000
93.375913	7.029343E-6	0.200000
93.493921	1.062350E-5	0.300000
93.731006	1.426345E-5	0.400000
93.848306	1.798810E-5	0.500000
93.964311	2.180272E-5	0.600000
94.080319	2.575963E-5	0.700000
94.196672	2.994284E-5	0.800000
94.314186	3.446947E-5	0.900000
94.430663	3.937496E-5	1.000000
94.548670	4.466665E-5	1.100000
94.666831	5.026180E-5	1.200000
94.785042	5.613504E-5	1.300000
94.900519	6.220331E-5	1.400000
95.018527	6.848140E-5	1.500000
95.136598	7.488451E-5	1.600000
95.254992	8.145147E-5	1.700000
95.371500	8.813931E-5	1.800000
95.487508	9.494416E-5	1.900000
95.606515	1.018907E-4	2.000000
95.724819	1.090913E-4	2.100000
95.955717	1.162986E-4	2.200000
96.072725	1.235726E-4	2.300000
96.190208	1.309684E-4	2.400000
96.306359	1.384846E-4	2.500000
96.421747	1.312559E-4	2.400000
96.539755	1.240602E-4	2.300000
96.657028	1.170060E-4	2.200000
96.773460	1.099698E-4	2.100000
96.891562	1.030915E-4	2.000000
97.008572	9.636519E-5	1.900000
97.193355	8.972306E-5	1.800000
97.309904	8.315806E-5	1.700000
97.428914	7.673704E-5	1.600000
97.546918	7.039374E-5	1.500000
97.663295	6.420506E-5	1.400000
97.780792	5.815899E-5	1.300000
97.898300	5.226392E-5	1.200000
98.015306	4.655245E-5	1.100000
98.131406	4.105935E-5	1.000000
98.248927	3.584002E-5	0.900000
98.363462	3.092468E-5	0.800000
98.482470	2.636188E-5	0.700000
98.600502	2.211325E-5	0.600000
98.718795	1.813188E-5	0.500000
98.834240	1.432719E-5	0.400000
98.951607	1.063619E-5	0.300000
99.068614	7.040259E-6	0.200000
99.251194	3.503671E-6	0.100000
99.369668	3.212460E-9	0.000000
99.555853	3.508647E-6	-0.100000
99.798390	7.061642E-6	-0.200000
99.915754	1.067758E-5	-0.300000
100.151832	1.435982E-5	-0.400000
100.270331	1.810666E-5	-0.500000
100.387926	2.192535E-5	-0.600000
100.504933	2.580074E-5	-0.700000
100.621953	2.973971E-5	-0.800000
100.739414	3.375726E-5	-0.900000
100.857942	3.784179E-5	-1.000000
100.975065	4.203340E-5	-1.100000
101.093081	4.629455E-5	-1.200000
101.208483	5.066050E-5	-1.300000
101.326653	5.516227E-5	-1.400000
101.444120	5.979974E-5	-1.500000
101.562128	6.460804E-5	-1.600000
101.678378	6.960813E-5	-1.700000
101.794682	7.478082E-5	-1.800000
101.913127	8.013991E-5	-1.900000
102.031135	8.570992E-5	-2.000000
102.147192	9.146097E-5	-2.100000
102.262733	9.748474E-5	-2.200000
102.382023	1.036421E-4	-2.300000
102.500030	1.098256E-4	-2.400000
102.732119	1.163285E-4	-2.500000
102.849528	1.094240E-4	-2.400000
102.966595	1.028115E-4	-2.300000
103.085602	9.646944E-5	-2.200000
103.263145	9.039433E-5	-2.100000
103.379544	8.461601E-5	-2.000000
103.497112	7.911647E-5	-1.900000
103.614601	7.388150E-5	-1.800000
103.732034	6.886240E-5	-1.700000
103.849043	6.401692E-5	-1.600000
103.966049	5.935634E-5	-1.500000
104.084078	5.482120E-5	-1.400000
104.201542	5.038580E-5	-1.300000
104.318001	4.606162E-5	-1.200000
104.437068	4.183135E-5	-1.100000
104.553074	3.767567E-5	-1.000000
104.672333	3.360752E-5	-0.900000
104.787786	2.961282E-5	-0.800000
104.907330	2.567465E-5	-0.700000
105.024339	2.182125E-5	-0.600000
105.143691	1.802516E-5	-0.500000
105.262210	1.429394E-5	-0.400000
105.378554	1.063241E-5	-0.300000
105.496089	7.032911E-6	-0.200000
105.677544	3.495793E-6	-0.100000
105.796549	2.053471E-10	0.000000
105.982560	3.494063E-6	0.100000
106.224755	7.018654E-6	0.200000
106.344278	1.059713E-5	0.300000
106.579408	1.423640E-5	0.400000
106.696857	1.795573E-5	0.500000
106.815097	2.176815E-5	0.600000
106.932706	2.572221E-5	0.700000
107.048714	2.992659E-5	0.800000
107.166745	3.446079E-5	0.900000
107.284225	3.938251E-5	1.000000
107.401433	4.466808E-5	1.100000
107.517442	5.027868E-5	1.200000
107.633449	5.613935E-5	1.300000
107.750456	6.221153E-5	1.400000
107.868464	6.848134E-5	1.500000
107.985471	7.490552E-5	1.600000
108.103478	8.146880E-5	1.700000
108.220595	8.814898E-5	1.800000
108.338958	9.496975E-5	1.900000
108.454966	1.019069E-4	2.000000
108.572972	1.091143E-4	2.100000
108.803523	1.163516E-4	2.200000
108.920530	1.235913E-4	2.300000
109.039538	1.309991E-4	2.400000
109.156593	1.385004E-4	2.500000
109.275125	1.312464E-4	2.400000
109.390566	1.241110E-4	2.300000
109.508574	1.170237E-4	2.200000
109.626616	1.099905E-4	2.100000
109.744808	1.031328E-4	2.000000
109.864307	9.639239E-5	1.900000
110.042432	8.973535E-5	1.800000
110.159507	8.316857E-5	1.700000
110.277903	7.673557E-5	1.600000
110.395194	7.041030E-5	1.500000
110.511200	6.421727E-5	1.400000
110.628287	5.817425E-5	1.300000
110.745552	5.227131E-5	1.200000
110.863051	4.655265E-5	1.100000
110.981059	4.105906E-5	1.000000
111.098066	3.583806E-5	0.900000
111.214596	3.092115E-5	0.800000
111.333344	2.634831E-5	0.700000
111.449808	2.210541E-5	0.600000
111.566817	1.811782E-5	0.500000
111.684066	1.431564E-5	0.400000
111.801578	1.063628E-5	0.300000
111.920998	7.037404E-6	0.200000
112.104021	3.503814E-6	0.100000
112.220609	3.199514E-9	0.000000
112.407928	3.511824E-6	-0.100000
112.650005	7.065977E-6	-0.200000
112.767493	1.067900E-5	-0.300000
113.004963	1.435882E-5	-0.400000
113.121554	1.810850E-5	-0.500000
113.239986	2.192232E-5	-0.600000
113.354548	2.580055E-5	-0.700000
113.473554	2.973674E-5	-0.800000
113.592562	3.375177E-5	-0.900000
113.708934	3.785173E-5	-1.000000
113.826443	4.203655E-5	-1.100000
113.942451	4.630491E-5	-1.200000
114.059459	5.063978E-5	-1.300000
114.173732	5.516167E-5	-1.400000
114.292011	5.979284E-5	-1.500000
114.408525	6.458670E-5	-1.600000
114.525533	6.956534E-5	-1.700000
114.641603	7.475684E-5	-1.800000
114.759144	8.010557E-5	-1.900000
114.874635	8.568550E-5	-2.000000
114.992642	9.147208E-5	-2.100000
115.108698	9.744293E-5	-2.200000
115.227363	1.035746E-4	-2.300000
115.344748	1.097281E-4	-2.400000
115.576890	1.162937E-4	-2.500000
115.695392	1.093850E-4	-2.400000
115.811808	1.028049E-4	-2.300000
115.930258	9.649577E-5	-2.200000
116.108294	9.041231E-5	-2.100000
116.225133	8.464188E-5	-2.000000
116.341556	7.912528E-5	-1.900000
116.459126	7.386324E-5	-1.800000
116.576418	6.884165E-5	-1.700000
116.692926	6.397776E-5	-1.600000
116.808933	5.931215E-5	-1.500000
116.926939	5.478242E-5	-1.400000
117.045947	5.037532E-5	-1.300000
117.163081	4.605538E-5	-1.200000
117.279583	4.182646E-5	-1.100000
117.397885	3.767895E-5	-1.000000
117.515894	3.360032E-5	-0.900000
117.631948	2.960914E-5	-0.800000
117.751196	2.568380E-5	-0.700000
117.865726	2.182459E-5	-0.600000
117.983732	1.802836E-5	-0.500000
118.100762	1.429600E-5	-0.400000
118.218195	1.063869E-5	-0.300000
118.334717	7.035819E-6	-0.200000
118.519186	3.497886E-6	-0.100000
118.636218	2.244426E-10	0.000000
118.822678	3.497413E-6	0.100000
119.066129	7.022406E-6	0.200000
119.182654	1.060393E-5	0.300000
119.422157	1.425538E-5	0.400000
119.539165	1.796858E-5	0.500000
119.655226	2.176539E-5	0.600000
119.772748	2.573783E-5	0.700000
119.891030	2.992667E-5	0.800000
120.008038	3.445593E-5	0.900000
120.126335	3.937227E-5	1.000000
120.243399	4.467375E-5	1.100000
120.360439	5.028764E-5	1.200000
120.477448	5.616361E-5	1.300000
120.593803	6.223397E-5	1.400000
120.711212	6.850131E-5	1.500000
120.829412	7.492283E-5	1.600000
120.945793	8.147604E-5	1.700000
121.064270	8.817530E-5	1.800000
121.179676	9.498561E-5	1.900000
121.296685	1.018920E-4	2.000000
121.414692	1.091157E-4	2.100000
121.645970	1.163557E-4	2.200000
121.765169	1.236314E-4	2.300000
121.883176	1.310169E-4	2.400000
122.001184	1.385291E-4	2.500000
122.117227	1.312742E-4	2.400000
122.234578	1.241080E-4	2.300000
122.355295	1.170768E-4	2.200000
122.471220	1.100308E-4	2.100000
122.588239	1.031714E-4	2.000000
122.705769	9.643050E-5	1.900000
122.885443	8.976404E-5	1.800000
123.004450	8.322187E-5	1.700000
123.121494	7.677516E-5	1.600000
123.238938	7.045866E-5	1.500000
123.357428	6.425817E-5	1.400000
123.476436	5.820704E-5	1.300000
123.592443	5.230195E-5	1.200000
123.709450	4.659372E-5	1.100000
123.827457	4.110439E-5	1.000000
123.944464	3.587238E-5	0.900000
124.062472	3.094741E-5	0.800000
124.177550	2.635946E-5	0.700000
124.297544	2.210475E-5	0.600000
124.415119	1.811511E-5	0.500000
124.532126	1.431087E-5	0.400000
124.649134	1.063686E-5	0.300000
124.765645	7.032430E-6	0.200000
124.949087	3.499920E-6	0.100000
125.067093	3.224958E-9	0.000000
125.254495	3.503781E-6	-0.100000
125.494925	7.050985E-6	-0.200000
125.613960	1.065715E-5	-0.300000
125.851099	1.433627E-5	-0.400000
125.969220	1.808436E-5	-0.500000
126.086228	2.189167E-5	-0.600000
126.202582	2.577460E-5	-0.700000
126.321054	2.970977E-5	-0.800000
126.439495	3.372123E-5	-0.900000
126.557503	3.782463E-5	-1.000000
126.674023	4.199606E-5	-1.100000
126.792468	4.625223E-5	-1.200000
126.908950	5.062474E-5	-1.300000
127.025957	5.510752E-5	-1.400000
127.165967	5.976074E-5	-1.500000
127.285512	6.454901E-5	-1.600000
127.403323	6.953051E-5	-1.700000
127.520330	7.470143E-5	-1.800000
127.636339	8.005902E-5	-1.900000
127.752839	8.565297E-5	-2.000000
127.870313	9.140476E-5	-2.100000
